ENLIGHTEN Version,4.1.6
Measurement ID,20241210-112042-574384-WP-02071
Serial Number,WP-02071
Model,WP-785X-F13-R-ILC
Detector,S16011-1106
Label,enlighten-CC-124_TAP_20241210-112042-574384-WP-02071
Declared Match,
Declared Score,0
Scan Averaging,2
Boxcar,0
Technique,Raman
Baseline Correction Algo,
ROI Pixel Start,10
ROI Pixel End,2047
ROI Vertical Pixel Start,0
ROI Vertical Pixel End,63
CCD C4,1.0143461591505254e-12
Slit Width,25
Cropped,True
Interpolated,False
Wavenumber Correction,0
Raman Intensity Corrected,False
Deconvolved,False
Region,
High Gain Mode,False
Laser Power mW,50.0
Electrical Dark Correction,False
Battery %,
Device ID,<DeviceID USB USB:0x24aa:0x1000:0:1>
FW Version,10.0.0.10
FPGA Version,035-001
Prefix,enlighten
Suffix,
Preset,
Session Count,3400
Plugin Name,
Integration Time,3000
Timestamp,2024-12-10 11:20:42.574384
Note,
Temperature,10.010850297268917
CCD C0,799.8416748046875
CCD C1,0.15680807828903198
CCD C2,1.0990047485393006e-05
CCD C3,-9.785007470952678e-09
CCD Offset,0
CCD Gain,1.9
CCD Offset Odd,0
CCD Gain Odd,1.9
Laser Wavelength,785.041
Laser Enable,True
Laser Power %,26.73960959264832
Laser Temperature,-95.6635622537485
Pixel Count,2048

Pixel,Wavelength,Wavenumber,Processed
0,799.84,235.71,NA
1,800.00,238.16,NA
2,800.16,240.61,NA
3,800.31,243.06,NA
4,800.47,245.51,NA
5,800.63,247.96,NA
6,800.78,250.41,NA
7,800.94,252.86,NA
8,801.10,255.30,NA
9,801.25,257.75,NA
10,801.41,260.19,7037.50
11,801.57,262.64,6988.50
12,801.72,265.08,7054.00
13,801.88,267.53,7085.50
14,802.04,269.97,7047.50
15,802.20,272.41,6975.50
16,802.35,274.85,7033.00
17,802.51,277.29,7067.00
18,802.67,279.73,7051.50
19,802.82,282.17,7073.50
20,802.98,284.61,7049.50
21,803.14,287.05,7112.50
22,803.30,289.49,7084.50
23,803.45,291.92,7100.00
24,803.61,294.36,7089.00
25,803.77,296.80,7072.50
26,803.93,299.23,7105.00
27,804.08,301.67,7040.50
28,804.24,304.10,7113.00
29,804.40,306.53,7046.00
30,804.56,308.97,7104.00
31,804.71,311.40,7114.50
32,804.87,313.83,7070.50
33,805.03,316.26,7052.00
34,805.19,318.69,7011.00
35,805.34,321.12,7056.00
36,805.50,323.55,7039.00
37,805.66,325.98,7041.00
38,805.82,328.40,7099.00
39,805.97,330.83,7106.50
40,806.13,333.26,7120.50
41,806.29,335.68,7159.00
42,806.45,338.11,7228.50
43,806.60,340.53,7222.00
44,806.76,342.95,7268.50
45,806.92,345.38,7304.50
46,807.08,347.80,7384.00
47,807.23,350.22,7348.00
48,807.39,352.64,7351.50
49,807.55,355.06,7329.50
50,807.71,357.48,7299.00
51,807.87,359.90,7302.00
52,808.02,362.32,7287.00
53,808.18,364.74,7300.50
54,808.34,367.15,7280.00
55,808.50,369.57,7248.50
56,808.66,371.99,7338.50
57,808.81,374.40,7238.00
58,808.97,376.82,7272.00
59,809.13,379.23,7297.00
60,809.29,381.64,7303.50
61,809.45,384.05,7272.00
62,809.60,386.47,7263.00
63,809.76,388.88,7336.50
64,809.92,391.29,7363.00
65,810.08,393.70,7284.50
66,810.24,396.11,7318.00
67,810.39,398.51,7226.00
68,810.55,400.92,7264.00
69,810.71,403.33,7332.50
70,810.87,405.74,7236.50
71,811.03,408.14,7265.00
72,811.19,410.55,7298.50
73,811.34,412.95,7259.50
74,811.50,415.36,7248.50
75,811.66,417.76,7265.00
76,811.82,420.16,7242.00
77,811.98,422.56,7246.00
78,812.13,424.96,7231.50
79,812.29,427.36,7216.50
80,812.45,429.76,7254.00
81,812.61,432.16,7176.00
82,812.77,434.56,7250.50
83,812.93,436.96,7205.00
84,813.09,439.36,7245.00
85,813.24,441.75,7218.50
86,813.40,444.15,7205.50
87,813.56,446.54,7236.00
88,813.72,448.94,7230.00
89,813.88,451.33,7152.00
90,814.04,453.72,7227.50
91,814.19,456.12,7249.00
92,814.35,458.51,7223.50
93,814.51,460.90,7266.50
94,814.67,463.29,7241.00
95,814.83,465.68,7194.00
96,814.99,468.07,7154.50
97,815.15,470.46,7223.50
98,815.31,472.84,7231.00
99,815.46,475.23,7182.00
100,815.62,477.62,7193.00
101,815.78,480.00,7211.00
102,815.94,482.39,7219.50
103,816.10,484.77,7192.50
104,816.26,487.16,7207.00
105,816.42,489.54,7185.00
106,816.58,491.92,7150.50
107,816.73,494.30,7162.00
108,816.89,496.68,7148.50
109,817.05,499.06,7160.00
110,817.21,501.44,7183.00
111,817.37,503.82,7225.50
112,817.53,506.20,7124.00
113,817.69,508.58,7212.00
114,817.85,510.95,7240.50
115,818.01,513.33,7263.00
116,818.16,515.70,7317.50
117,818.32,518.08,7274.50
118,818.48,520.45,7290.50
119,818.64,522.82,7222.00
120,818.80,525.20,7217.00
121,818.96,527.57,7130.50
122,819.12,529.94,7139.00
123,819.28,532.31,7075.50
124,819.44,534.68,7128.50
125,819.60,537.05,7057.00
126,819.75,539.42,7076.00
127,819.91,541.78,7084.50
128,820.07,544.15,7064.50
129,820.23,546.52,7094.50
130,820.39,548.88,7104.00
131,820.55,551.25,7078.00
132,820.71,553.61,7041.00
133,820.87,555.97,7023.00
134,821.03,558.34,7003.00
135,821.19,560.70,7095.50
136,821.35,563.06,7034.50
137,821.51,565.42,7100.00
138,821.67,567.78,7075.00
139,821.82,570.14,7147.50
140,821.98,572.50,7102.00
141,822.14,574.86,7121.00
142,822.30,577.21,7113.00
143,822.46,579.57,6998.50
144,822.62,581.92,7032.50
145,822.78,584.28,7053.50
146,822.94,586.63,7091.50
147,823.10,588.99,7036.00
148,823.26,591.34,6951.00
149,823.42,593.69,7033.00
150,823.58,596.04,6989.50
151,823.74,598.39,6951.50
152,823.90,600.74,6964.50
153,824.06,603.09,6949.00
154,824.22,605.44,6988.50
155,824.38,607.79,6904.50
156,824.53,610.13,6879.00
157,824.69,612.48,6890.00
158,824.85,614.83,6878.00
159,825.01,617.17,6902.50
160,825.17,619.52,6870.50
161,825.33,621.86,6894.50
162,825.49,624.20,6817.00
163,825.65,626.54,6887.50
164,825.81,628.89,6808.50
165,825.97,631.23,6842.50
166,826.13,633.57,6765.00
167,826.29,635.90,6812.00
168,826.45,638.24,6811.50
169,826.61,640.58,6780.00
170,826.77,642.92,6817.00
171,826.93,645.25,6789.50
172,827.09,647.59,6785.00
173,827.25,649.92,6731.00
174,827.41,652.26,6772.00
175,827.57,654.59,6740.00
176,827.73,656.92,6739.50
177,827.89,659.26,6739.50
178,828.05,661.59,6764.00
179,828.21,663.92,6759.50
180,828.37,666.25,6711.00
181,828.53,668.58,6715.00
182,828.69,670.90,6742.00
183,828.85,673.23,6745.00
184,829.01,675.56,6727.50
185,829.17,677.88,6734.00
186,829.33,680.21,6730.00
187,829.49,682.53,6704.50
188,829.65,684.86,6740.00
189,829.81,687.18,6678.50
190,829.97,689.50,6748.50
191,830.13,691.83,6717.00
192,830.29,694.15,6618.50
193,830.45,696.47,6708.00
194,830.61,698.79,6700.50
195,830.77,701.11,6699.00
196,830.93,703.42,6631.50
197,831.09,705.74,6643.50
198,831.25,708.06,6641.00
199,831.41,710.37,6712.50
200,831.57,712.69,6700.00
201,831.73,715.00,6735.50
202,831.89,717.32,6739.50
203,832.05,719.63,6671.00
204,832.21,721.94,6723.50
205,832.37,724.25,6699.50
206,832.53,726.56,6772.50
207,832.69,728.87,6705.50
208,832.85,731.18,6707.50
209,833.01,733.49,6796.50
210,833.17,735.80,6889.00
211,833.33,738.11,7006.00
212,833.49,740.41,7099.50
213,833.65,742.72,7319.50
214,833.81,745.02,7528.50
215,833.97,747.33,7459.50
216,834.13,749.63,7334.50
217,834.29,751.93,7261.00
218,834.45,754.23,7240.00
219,834.61,756.53,7082.00
220,834.77,758.83,7015.50
221,834.93,761.13,6826.00
222,835.09,763.43,6664.50
223,835.25,765.73,6515.00
224,835.41,768.03,6468.00
225,835.57,770.32,6414.00
226,835.73,772.62,6447.00
227,835.89,774.92,6376.00
228,836.05,777.21,6372.00
229,836.21,779.50,6368.50
230,836.37,781.80,6349.00
231,836.53,784.09,6383.50
232,836.69,786.38,6401.00
233,836.85,788.67,6349.50
234,837.01,790.96,6341.00
235,837.17,793.25,6377.00
236,837.34,795.54,6389.00
237,837.50,797.82,6375.50
238,837.66,800.11,6433.00
239,837.82,802.40,6327.50
240,837.98,804.68,6299.50
241,838.14,806.97,6253.50
242,838.30,809.25,6225.50
243,838.46,811.53,6228.50
244,838.62,813.82,6228.50
245,838.78,816.10,6193.00
246,838.94,818.38,6159.00
247,839.10,820.66,6159.50
248,839.26,822.94,6168.50
249,839.42,825.22,6198.00
250,839.58,827.49,6155.00
251,839.74,829.77,6171.50
252,839.90,832.05,6178.50
253,840.06,834.32,6201.50
254,840.22,836.60,6162.50
255,840.38,838.87,6122.00
256,840.54,841.14,6159.00
257,840.71,843.42,6142.00
258,840.87,845.69,6123.50
259,841.03,847.96,6138.00
260,841.19,850.23,6130.50
261,841.35,852.50,6097.00
262,841.51,854.77,6080.00
263,841.67,857.04,6054.00
264,841.83,859.30,6026.00
265,841.99,861.57,6018.00
266,842.15,863.84,6046.50
267,842.31,866.10,6083.00
268,842.47,868.36,6003.50
269,842.63,870.63,6029.00
270,842.79,872.89,6028.50
271,842.95,875.15,5984.50
272,843.12,877.41,5973.00
273,843.28,879.67,6000.00
274,843.44,881.93,5964.50
275,843.60,884.19,6027.00
276,843.76,886.45,6007.00
277,843.92,888.71,6015.50
278,844.08,890.96,6015.00
279,844.24,893.22,5997.00
280,844.40,895.47,5978.50
281,844.56,897.73,6002.00
282,844.72,899.98,5979.00
283,844.88,902.23,5979.50
284,845.04,904.49,6059.00
285,845.20,906.74,6044.00
286,845.37,908.99,6130.00
287,845.53,911.24,6180.00
288,845.69,913.49,6253.00
289,845.85,915.73,6295.50
290,846.01,917.98,6348.00
291,846.17,920.23,6293.00
292,846.33,922.47,6235.50
293,846.49,924.72,6059.00
294,846.65,926.96,5925.50
295,846.81,929.20,5792.00
296,846.97,931.45,5770.50
297,847.13,933.69,5707.50
298,847.30,935.93,5656.50
299,847.46,938.17,5692.50
300,847.62,940.41,5665.50
301,847.78,942.65,5694.00
302,847.94,944.89,5637.00
303,848.10,947.12,5710.00
304,848.26,949.36,5659.50
305,848.42,951.60,5716.00
306,848.58,953.83,5778.00
307,848.74,956.06,5715.50
308,848.90,958.30,5769.50
309,849.07,960.53,5768.00
310,849.23,962.76,5765.50
311,849.39,964.99,5816.00
312,849.55,967.22,5749.50
313,849.71,969.45,5788.50
314,849.87,971.68,5776.00
315,850.03,973.91,5775.00
316,850.19,976.14,5809.00
317,850.35,978.36,5843.00
318,850.51,980.59,5951.00
319,850.67,982.81,6117.50
320,850.84,985.04,6276.50
321,851.00,987.26,6314.00
322,851.16,989.48,6293.50
323,851.32,991.70,6320.50
324,851.48,993.92,6252.50
325,851.64,996.15,6359.50
326,851.80,998.36,6447.50
327,851.96,1000.58,6601.50
328,852.12,1002.80,6691.50
329,852.28,1005.02,6639.50
330,852.45,1007.23,6504.00
331,852.61,1009.45,6239.50
332,852.77,1011.66,6053.50
333,852.93,1013.88,5876.50
334,853.09,1016.09,5704.00
335,853.25,1018.30,5580.50
336,853.41,1020.51,5596.50
337,853.57,1022.72,5602.00
338,853.73,1024.93,5545.50
339,853.89,1027.14,5581.50
340,854.06,1029.35,5491.50
341,854.22,1031.56,5577.50
342,854.38,1033.77,5501.50
343,854.54,1035.97,5472.50
344,854.70,1038.18,5494.00
345,854.86,1040.38,5573.00
346,855.02,1042.59,5537.00
347,855.18,1044.79,5612.50
348,855.34,1046.99,5651.50
349,855.51,1049.19,5636.50
350,855.67,1051.39,5630.00
351,855.83,1053.59,5524.50
352,855.99,1055.79,5445.00
353,856.15,1057.99,5428.50
354,856.31,1060.19,5305.00
355,856.47,1062.38,5261.50
356,856.63,1064.58,5330.50
357,856.79,1066.77,5313.00
358,856.96,1068.97,5397.00
359,857.12,1071.16,5382.50
360,857.28,1073.35,5390.00
361,857.44,1075.54,5274.00
362,857.60,1077.74,5147.50
363,857.76,1079.93,5158.50
364,857.92,1082.11,5107.50
365,858.08,1084.30,5119.00
366,858.24,1086.49,5076.00
367,858.41,1088.68,5089.00
368,858.57,1090.86,5063.50
369,858.73,1093.05,5034.50
370,858.89,1095.23,5052.00
371,859.05,1097.42,5132.50
372,859.21,1099.60,5157.50
373,859.37,1101.78,5180.50
374,859.53,1103.96,5187.50
375,859.69,1106.15,5231.50
376,859.86,1108.33,5321.50
377,860.02,1110.50,5365.50
378,860.18,1112.68,5423.00
379,860.34,1114.86,5447.00
380,860.50,1117.04,5377.50
381,860.66,1119.21,5355.00
382,860.82,1121.39,5269.50
383,860.98,1123.56,5234.50
384,861.14,1125.74,5331.00
385,861.31,1127.91,5259.00
386,861.47,1130.08,5296.00
387,861.63,1132.25,5373.50
388,861.79,1134.42,5452.00
389,861.95,1136.59,5674.00
390,862.11,1138.76,5894.50
391,862.27,1140.93,6139.00
392,862.43,1143.09,6418.50
393,862.59,1145.26,6548.50
394,862.76,1147.43,6713.50
395,862.92,1149.59,6878.50
396,863.08,1151.76,7174.50
397,863.24,1153.92,7543.00
398,863.40,1156.08,7751.50
399,863.56,1158.24,7836.50
400,863.72,1160.40,7518.00
401,863.88,1162.56,7035.50
402,864.05,1164.72,6548.00
403,864.21,1166.88,6083.50
404,864.37,1169.04,5867.00
405,864.53,1171.19,5767.00
406,864.69,1173.35,5773.00
407,864.85,1175.51,5893.00
408,865.01,1177.66,6050.50
409,865.17,1179.81,6181.50
410,865.33,1181.97,6411.50
411,865.50,1184.12,6552.50
412,865.66,1186.27,6597.50
413,865.82,1188.42,6532.50
414,865.98,1190.57,6360.00
415,866.14,1192.72,6202.50
416,866.30,1194.87,5995.00
417,866.46,1197.01,5843.50
418,866.62,1199.16,5589.50
419,866.79,1201.30,5519.50
420,866.95,1203.45,5478.50
421,867.11,1205.59,5532.50
422,867.27,1207.74,5545.50
423,867.43,1209.88,5588.50
424,867.59,1212.02,5651.00
425,867.75,1214.16,5750.00
426,867.91,1216.30,5761.50
427,868.07,1218.44,5723.00
428,868.24,1220.58,5826.00
429,868.40,1222.71,5849.50
430,868.56,1224.85,5797.00
431,868.72,1226.99,5869.50
432,868.88,1229.12,5760.50
433,869.04,1231.26,5630.00
434,869.20,1233.39,5411.00
435,869.36,1235.52,5252.00
436,869.52,1237.65,5078.00
437,869.69,1239.78,4908.50
438,869.85,1241.91,4872.00
439,870.01,1244.04,4725.00
440,870.17,1246.17,4704.00
441,870.33,1248.30,4675.00
442,870.49,1250.43,4668.50
443,870.65,1252.55,4701.50
444,870.81,1254.68,4703.50
445,870.98,1256.80,4731.50
446,871.14,1258.93,4782.00
447,871.30,1261.05,4869.00
448,871.46,1263.17,4876.00
449,871.62,1265.29,4931.00
450,871.78,1267.41,4921.00
451,871.94,1269.53,4796.50
452,872.10,1271.65,4787.50
453,872.26,1273.77,4717.00
454,872.43,1275.89,4788.00
455,872.59,1278.00,4726.50
456,872.75,1280.12,4807.50
457,872.91,1282.23,4987.50
458,873.07,1284.35,5101.00
459,873.23,1286.46,5221.00
460,873.39,1288.57,5211.50
461,873.55,1290.69,5133.50
462,873.71,1292.80,4930.00
463,873.88,1294.91,4808.00
464,874.04,1297.02,4704.00
465,874.20,1299.12,4581.50
466,874.36,1301.23,4632.50
467,874.52,1303.34,4675.00
468,874.68,1305.44,4626.50
469,874.84,1307.55,4645.00
470,875.00,1309.65,4640.50
471,875.16,1311.76,4591.50
472,875.32,1313.86,4551.50
473,875.49,1315.96,4555.00
474,875.65,1318.06,4610.00
475,875.81,1320.16,4809.50
476,875.97,1322.26,5162.50
477,876.13,1324.36,5461.50
478,876.29,1326.46,5776.00
479,876.45,1328.55,5849.00
480,876.61,1330.65,5550.50
481,876.77,1332.75,5140.00
482,876.94,1334.84,4805.50
483,877.10,1336.93,4652.50
484,877.26,1339.03,4492.50
485,877.42,1341.12,4390.50
486,877.58,1343.21,4367.50
487,877.74,1345.30,4285.00
488,877.90,1347.39,4351.50
489,878.06,1349.48,4286.00
490,878.22,1351.57,4279.00
491,878.38,1353.65,4272.50
492,878.55,1355.74,4309.00
493,878.71,1357.83,4300.50
494,878.87,1359.91,4202.50
495,879.03,1361.99,4072.00
496,879.19,1364.08,4025.50
497,879.35,1366.16,4014.00
498,879.51,1368.24,3988.50
499,879.67,1370.32,4013.50
500,879.83,1372.40,4054.50
501,879.99,1374.48,4120.00
502,880.16,1376.56,4163.00
503,880.32,1378.64,4125.50
504,880.48,1380.71,4137.00
505,880.64,1382.79,4191.50
506,880.80,1384.86,4170.50
507,880.96,1386.94,4209.50
508,881.12,1389.01,4267.50
509,881.28,1391.08,4225.50
510,881.44,1393.15,4115.50
511,881.60,1395.23,4103.50
512,881.76,1397.30,4072.50
513,881.93,1399.36,3992.50
514,882.09,1401.43,3899.50
515,882.25,1403.50,3799.00
516,882.41,1405.57,3765.50
517,882.57,1407.63,3731.00
518,882.73,1409.70,3728.00
519,882.89,1411.76,3695.50
520,883.05,1413.83,3697.50
521,883.21,1415.89,3743.50
522,883.37,1417.95,3740.50
523,883.53,1420.01,3762.00
524,883.70,1422.07,3790.00
525,883.86,1424.13,3780.50
526,884.02,1426.19,3818.50
527,884.18,1428.25,3861.50
528,884.34,1430.30,3938.50
529,884.50,1432.36,3986.50
530,884.66,1434.41,4149.50
531,884.82,1436.47,4281.50
532,884.98,1438.52,4325.50
533,885.14,1440.58,4298.00
534,885.30,1442.63,4226.50
535,885.46,1444.68,4225.50
536,885.63,1446.73,4152.00
537,885.79,1448.78,4050.00
538,885.95,1450.83,3962.50
539,886.11,1452.87,3927.50
540,886.27,1454.92,3881.00
541,886.43,1456.97,3854.50
542,886.59,1459.01,3759.00
543,886.75,1461.06,3801.50
544,886.91,1463.10,3735.00
545,887.07,1465.14,3737.50
546,887.23,1467.19,3746.50
547,887.39,1469.23,3747.00
548,887.55,1471.27,3706.50
549,887.71,1473.31,3723.00
550,887.88,1475.35,3779.50
551,888.04,1477.39,3792.50
552,888.20,1479.42,3819.50
553,888.36,1481.46,3880.00
554,888.52,1483.49,3966.00
555,888.68,1485.53,4031.00
556,888.84,1487.56,4097.50
557,889.00,1489.60,4097.00
558,889.16,1491.63,4040.00
559,889.32,1493.66,4017.50
560,889.48,1495.69,3994.00
561,889.64,1497.72,3964.00
562,889.80,1499.75,3891.50
563,889.96,1501.78,3990.50
564,890.12,1503.80,4005.50
565,890.29,1505.83,4125.50
566,890.45,1507.86,4314.00
567,890.61,1509.88,4551.00
568,890.77,1511.91,4856.00
569,890.93,1513.93,5300.50
570,891.09,1515.95,5744.00
571,891.25,1517.97,6347.50
572,891.41,1519.99,7028.50
573,891.57,1522.01,7510.00
574,891.73,1524.03,7986.00
575,891.89,1526.05,8170.50
576,892.05,1528.07,8102.00
577,892.21,1530.08,7670.00
578,892.37,1532.10,7275.00
579,892.53,1534.12,6750.50
580,892.69,1536.13,6259.00
581,892.85,1538.14,5798.50
582,893.01,1540.15,5361.00
583,893.17,1542.17,5037.50
584,893.33,1544.18,4887.00
585,893.50,1546.19,4819.50
586,893.66,1548.20,4807.00
587,893.82,1550.20,4766.50
588,893.98,1552.21,4793.00
589,894.14,1554.22,4670.50
590,894.30,1556.23,4550.00
591,894.46,1558.23,4319.50
592,894.62,1560.23,4109.50
593,894.78,1562.24,4017.50
594,894.94,1564.24,3837.50
595,895.10,1566.24,3772.50
596,895.26,1568.24,3725.00
597,895.42,1570.24,3635.50
598,895.58,1572.24,3604.50
599,895.74,1574.24,3535.50
600,895.90,1576.24,3531.50
601,896.06,1578.24,3473.00
602,896.22,1580.23,3457.50
603,896.38,1582.23,3447.00
604,896.54,1584.22,3455.50
605,896.70,1586.21,3389.00
606,896.86,1588.21,3349.00
607,897.02,1590.20,3351.00
608,897.18,1592.19,3344.00
609,897.34,1594.18,3352.00
610,897.50,1596.17,3394.00
611,897.66,1598.16,3466.00
612,897.82,1600.15,3534.50
613,897.98,1602.13,3587.00
614,898.14,1604.12,3626.00
615,898.30,1606.10,3642.00
616,898.46,1608.09,3685.00
617,898.62,1610.07,3611.00
618,898.78,1612.05,3536.50
619,898.94,1614.04,3514.50
620,899.11,1616.02,3398.50
621,899.27,1618.00,3284.00
622,899.43,1619.98,3244.00
623,899.59,1621.96,3226.00
624,899.75,1623.93,3121.50
625,899.91,1625.91,3108.00
626,900.07,1627.89,3074.00
627,900.23,1629.86,3060.00
628,900.39,1631.84,3025.50
629,900.55,1633.81,3012.50
630,900.71,1635.78,3040.00
631,900.87,1637.76,2987.50
632,901.03,1639.73,2965.00
633,901.19,1641.70,2991.50
634,901.35,1643.67,2967.00
635,901.51,1645.64,3010.00
636,901.67,1647.60,3001.50
637,901.83,1649.57,2980.50
638,901.99,1651.54,2947.00
639,902.15,1653.50,3005.00
640,902.31,1655.47,2987.00
641,902.47,1657.43,2961.50
642,902.63,1659.39,2985.50
643,902.79,1661.36,2942.50
644,902.95,1663.32,2977.50
645,903.10,1665.28,2951.50
646,903.26,1667.24,2939.50
647,903.42,1669.20,2925.50
648,903.58,1671.15,2921.50
649,903.74,1673.11,2910.00
650,903.90,1675.07,2949.50
651,904.06,1677.02,2930.50
652,904.22,1678.98,2906.00
653,904.38,1680.93,2861.00
654,904.54,1682.88,2900.00
655,904.70,1684.84,2863.00
656,904.86,1686.79,2827.00
657,905.02,1688.74,2799.50
658,905.18,1690.69,2780.50
659,905.34,1692.64,2767.00
660,905.50,1694.59,2771.50
661,905.66,1696.53,2725.00
662,905.82,1698.48,2715.50
663,905.98,1700.42,2660.00
664,906.14,1702.37,2683.00
665,906.30,1704.31,2647.50
666,906.46,1706.26,2609.00
667,906.62,1708.20,2583.50
668,906.78,1710.14,2561.00
669,906.94,1712.08,2547.50
670,907.10,1714.02,2569.00
671,907.26,1715.96,2560.50
672,907.42,1717.90,2480.50
673,907.58,1719.83,2490.50
674,907.74,1721.77,2456.00
675,907.90,1723.71,2465.00
676,908.06,1725.64,2434.00
677,908.21,1727.58,2482.50
678,908.37,1729.51,2448.50
679,908.53,1731.44,2427.50
680,908.69,1733.37,2455.00
681,908.85,1735.30,2408.50
682,909.01,1737.23,2431.00
683,909.17,1739.16,2441.00
684,909.33,1741.09,2396.00
685,909.49,1743.02,2429.00
686,909.65,1744.94,2377.00
687,909.81,1746.87,2331.50
688,909.97,1748.80,2384.00
689,910.13,1750.72,2350.50
690,910.29,1752.64,2383.50
691,910.45,1754.57,2335.00
692,910.61,1756.49,2310.00
693,910.77,1758.41,2354.00
694,910.92,1760.33,2305.50
695,911.08,1762.25,2358.50
696,911.24,1764.16,2281.00
697,911.40,1766.08,2282.50
698,911.56,1768.00,2267.50
699,911.72,1769.91,2268.00
700,911.88,1771.83,2303.00
701,912.04,1773.74,2244.50
702,912.20,1775.66,2237.00
703,912.36,1777.57,2234.00
704,912.52,1779.48,2217.50
705,912.68,1781.39,2223.00
706,912.83,1783.30,2237.50
707,912.99,1785.21,2200.50
708,913.15,1787.12,2192.50
709,913.31,1789.03,2185.50
710,913.47,1790.93,2186.00
711,913.63,1792.84,2205.50
712,913.79,1794.75,2171.50
713,913.95,1796.65,2162.00
714,914.11,1798.55,2190.00
715,914.27,1800.46,2134.00
716,914.43,1802.36,2157.50
717,914.58,1804.26,2133.00
718,914.74,1806.16,2119.00
719,914.90,1808.06,2121.00
720,915.06,1809.96,2101.00
721,915.22,1811.85,2117.00
722,915.38,1813.75,2085.00
723,915.54,1815.65,2078.50
724,915.70,1817.54,2129.50
725,915.86,1819.44,2079.50
726,916.01,1821.33,2099.00
727,916.17,1823.22,2092.00
728,916.33,1825.11,2062.50
729,916.49,1827.01,2081.50
730,916.65,1828.90,2111.50
731,916.81,1830.78,2073.00
732,916.97,1832.67,2119.50
733,917.13,1834.56,2037.50
734,917.28,1836.45,2043.50
735,917.44,1838.33,2063.00
736,917.60,1840.22,2058.00
737,917.76,1842.10,2027.00
738,917.92,1843.99,1999.50
739,918.08,1845.87,2015.00
740,918.24,1847.75,2020.00
741,918.40,1849.63,2001.00
742,918.55,1851.51,2004.50
743,918.71,1853.39,2009.00
744,918.87,1855.27,1990.00
745,919.03,1857.15,1959.50
746,919.19,1859.03,2023.00
747,919.35,1860.90,1947.00
748,919.51,1862.78,1957.50
749,919.66,1864.65,1954.50
750,919.82,1866.53,1957.50
751,919.98,1868.40,1953.50
752,920.14,1870.27,1926.00
753,920.30,1872.14,1924.00
754,920.46,1874.01,1909.50
755,920.61,1875.88,1938.50
756,920.77,1877.75,1950.00
757,920.93,1879.62,1877.50
758,921.09,1881.49,1897.00
759,921.25,1883.35,1907.50
760,921.41,1885.22,1892.50
761,921.57,1887.08,1901.00
762,921.72,1888.95,1852.00
763,921.88,1890.81,1857.00
764,922.04,1892.67,1867.00
765,922.20,1894.53,1837.50
766,922.36,1896.39,1870.50
767,922.51,1898.25,1855.50
768,922.67,1900.11,1832.00
769,922.83,1901.97,1831.50
770,922.99,1903.83,1806.50
771,923.15,1905.68,1815.50
772,923.31,1907.54,1849.50
773,923.46,1909.39,1842.50
774,923.62,1911.25,1823.00
775,923.78,1913.10,1803.00
776,923.94,1914.95,1810.00
777,924.10,1916.80,1788.00
778,924.25,1918.65,1812.50
779,924.41,1920.50,1814.50
780,924.57,1922.35,1791.00
781,924.73,1924.20,1786.50
782,924.89,1926.05,1776.00
783,925.04,1927.89,1810.00
784,925.20,1929.74,1778.50
785,925.36,1931.59,1742.50
786,925.52,1933.43,1746.00
787,925.68,1935.27,1745.00
788,925.83,1937.11,1742.00
789,925.99,1938.96,1729.50
790,926.15,1940.80,1724.50
791,926.31,1942.64,1734.50
792,926.47,1944.48,1698.50
793,926.62,1946.31,1715.50
794,926.78,1948.15,1712.50
795,926.94,1949.99,1702.00
796,927.10,1951.82,1706.50
797,927.25,1953.66,1743.00
798,927.41,1955.49,1712.50
799,927.57,1957.33,1651.50
800,927.73,1959.16,1678.50
801,927.88,1960.99,1636.50
802,928.04,1962.82,1623.50
803,928.20,1964.65,1674.50
804,928.36,1966.48,1654.50
805,928.52,1968.31,1629.50
806,928.67,1970.14,1617.00
807,928.83,1971.96,1643.00
808,928.99,1973.79,1616.00
809,929.15,1975.61,1627.00
810,929.30,1977.44,1602.00
811,929.46,1979.26,1611.50
812,929.62,1981.08,1584.00
813,929.78,1982.91,1643.50
814,929.93,1984.73,1591.50
815,930.09,1986.55,1585.00
816,930.25,1988.37,1543.00
817,930.41,1990.19,1537.50
818,930.56,1992.00,1576.50
819,930.72,1993.82,1610.50
820,930.88,1995.64,1556.00
821,931.03,1997.45,1581.50
822,931.19,1999.27,1584.00
823,931.35,2001.08,1534.00
824,931.51,2002.89,1539.50
825,931.66,2004.70,1544.00
826,931.82,2006.51,1522.00
827,931.98,2008.33,1563.50
828,932.14,2010.13,1526.50
829,932.29,2011.94,1514.00
830,932.45,2013.75,1493.50
831,932.61,2015.56,1503.50
832,932.76,2017.36,1507.00
833,932.92,2019.17,1512.50
834,933.08,2020.97,1528.00
835,933.24,2022.78,1507.00
836,933.39,2024.58,1497.50
837,933.55,2026.38,1512.50
838,933.71,2028.18,1520.00
839,933.86,2029.98,1467.50
840,934.02,2031.78,1487.50
841,934.18,2033.58,1459.50
842,934.33,2035.38,1459.50
843,934.49,2037.18,1463.00
844,934.65,2038.97,1466.50
845,934.81,2040.77,1463.50
846,934.96,2042.56,1464.00
847,935.12,2044.36,1397.50
848,935.28,2046.15,1444.00
849,935.43,2047.94,1425.00
850,935.59,2049.74,1410.00
851,935.75,2051.53,1417.00
852,935.90,2053.32,1414.50
853,936.06,2055.11,1401.00
854,936.22,2056.89,1418.50
855,936.37,2058.68,1388.00
856,936.53,2060.47,1424.00
857,936.69,2062.25,1394.50
858,936.84,2064.04,1427.50
859,937.00,2065.82,1360.50
860,937.16,2067.61,1366.00
861,937.31,2069.39,1391.50
862,937.47,2071.17,1362.50
863,937.63,2072.95,1324.50
864,937.78,2074.73,1337.00
865,937.94,2076.51,1344.00
866,938.10,2078.29,1345.00
867,938.25,2080.06,1338.50
868,938.41,2081.84,1283.00
869,938.56,2083.62,1341.00
870,938.72,2085.39,1330.00
871,938.88,2087.17,1339.50
872,939.03,2088.94,1345.50
873,939.19,2090.71,1266.50
874,939.35,2092.48,1278.00
875,939.50,2094.26,1301.50
876,939.66,2096.03,1328.50
877,939.81,2097.80,1299.00
878,939.97,2099.56,1295.00
879,940.13,2101.33,1293.50
880,940.28,2103.10,1278.00
881,940.44,2104.86,1279.00
882,940.60,2106.63,1270.50
883,940.75,2108.39,1267.00
884,940.91,2110.16,1289.00
885,941.06,2111.92,1249.00
886,941.22,2113.68,1291.00
887,941.38,2115.44,1261.50
888,941.53,2117.20,1208.50
889,941.69,2118.96,1273.50
890,941.84,2120.72,1273.50
891,942.00,2122.48,1255.00
892,942.16,2124.24,1210.00
893,942.31,2125.99,1224.00
894,942.47,2127.75,1250.50
895,942.62,2129.50,1214.00
896,942.78,2131.26,1237.50
897,942.94,2133.01,1234.50
898,943.09,2134.76,1218.50
899,943.25,2136.52,1219.50
900,943.40,2138.27,1166.00
901,943.56,2140.02,1215.50
902,943.71,2141.76,1227.50
903,943.87,2143.51,1185.50
904,944.03,2145.26,1177.50
905,944.18,2147.01,1172.00
906,944.34,2148.75,1161.50
907,944.49,2150.50,1147.50
908,944.65,2152.24,1179.00
909,944.80,2153.98,1155.00
910,944.96,2155.73,1184.50
911,945.12,2157.47,1179.50
912,945.27,2159.21,1170.00
913,945.43,2160.95,1144.00
914,945.58,2162.69,1157.00
915,945.74,2164.43,1162.00
916,945.89,2166.16,1157.00
917,946.05,2167.90,1091.00
918,946.20,2169.64,1126.00
919,946.36,2171.37,1112.50
920,946.51,2173.11,1121.00
921,946.67,2174.84,1106.50
922,946.82,2176.57,1096.50
923,946.98,2178.31,1114.00
924,947.14,2180.04,1099.50
925,947.29,2181.77,1092.50
926,947.45,2183.50,1110.00
927,947.60,2185.23,1087.50
928,947.76,2186.95,1115.50
929,947.91,2188.68,1094.00
930,948.07,2190.41,1105.00
931,948.22,2192.13,1077.50
932,948.38,2193.86,1066.50
933,948.53,2195.58,1058.00
934,948.69,2197.30,1070.00
935,948.84,2199.03,1067.50
936,949.00,2200.75,1052.00
937,949.15,2202.47,1044.50
938,949.31,2204.19,1058.50
939,949.46,2205.91,1040.00
940,949.62,2207.62,1042.50
941,949.77,2209.34,1052.50
942,949.93,2211.06,1025.50
943,950.08,2212.77,1015.00
944,950.24,2214.49,1052.50
945,950.39,2216.20,1004.00
946,950.55,2217.92,991.50
947,950.70,2219.63,1029.50
948,950.86,2221.34,1041.00
949,951.01,2223.05,1019.50
950,951.16,2224.76,1016.50
951,951.32,2226.47,1024.50
952,951.47,2228.18,1032.50
953,951.63,2229.89,999.50
954,951.78,2231.59,1003.50
955,951.94,2233.30,995.00
956,952.09,2235.00,972.50
957,952.25,2236.71,998.50
958,952.40,2238.41,965.00
959,952.56,2240.12,963.50
960,952.71,2241.82,963.50
961,952.86,2243.52,995.50
962,953.02,2245.22,968.50
963,953.17,2246.92,974.50
964,953.33,2248.62,944.50
965,953.48,2250.32,977.00
966,953.64,2252.01,970.50
967,953.79,2253.71,949.50
968,953.95,2255.40,963.50
969,954.10,2257.10,949.00
970,954.25,2258.79,935.50
971,954.41,2260.49,962.00
972,954.56,2262.18,903.50
973,954.72,2263.87,924.00
974,954.87,2265.56,919.00
975,955.02,2267.25,910.00
976,955.18,2268.94,938.50
977,955.33,2270.63,943.00
978,955.49,2272.32,916.50
979,955.64,2274.00,935.50
980,955.79,2275.69,888.50
981,955.95,2277.37,944.50
982,956.10,2279.06,931.00
983,956.26,2280.74,896.00
984,956.41,2282.42,905.50
985,956.56,2284.11,914.00
986,956.72,2285.79,918.50
987,956.87,2287.47,898.50
988,957.03,2289.15,901.00
989,957.18,2290.82,889.50
990,957.33,2292.50,868.00
991,957.49,2294.18,837.00
992,957.64,2295.86,858.50
993,957.79,2297.53,893.50
994,957.95,2299.21,866.00
995,958.10,2300.88,869.50
996,958.25,2302.55,830.00
997,958.41,2304.22,810.00
998,958.56,2305.90,859.00
999,958.72,2307.57,882.50
1000,958.87,2309.24,860.00
1001,959.02,2310.91,848.00
1002,959.18,2312.57,861.00
1003,959.33,2314.24,842.50
1004,959.48,2315.91,856.00
1005,959.64,2317.57,835.00
1006,959.79,2319.24,830.00
1007,959.94,2320.90,820.00
1008,960.10,2322.57,820.00
1009,960.25,2324.23,835.50
1010,960.40,2325.89,819.00
1011,960.56,2327.55,833.50
1012,960.71,2329.21,862.50
1013,960.86,2330.87,842.50
1014,961.02,2332.53,807.50
1015,961.17,2334.19,800.50
1016,961.32,2335.84,774.50
1017,961.47,2337.50,775.50
1018,961.63,2339.16,794.50
1019,961.78,2340.81,756.50
1020,961.93,2342.46,786.50
1021,962.09,2344.12,772.50
1022,962.24,2345.77,790.50
1023,962.39,2347.42,731.50
1024,962.55,2349.07,759.00
1025,962.70,2350.72,751.50
1026,962.85,2352.37,779.50
1027,963.00,2354.02,771.50
1028,963.16,2355.67,751.00
1029,963.31,2357.31,762.50
1030,963.46,2358.96,771.50
1031,963.62,2360.60,741.50
1032,963.77,2362.25,721.00
1033,963.92,2363.89,748.00
1034,964.07,2365.53,742.00
1035,964.23,2367.18,719.00
1036,964.38,2368.82,728.50
1037,964.53,2370.46,755.00
1038,964.68,2372.10,713.00
1039,964.84,2373.74,684.50
1040,964.99,2375.37,733.00
1041,965.14,2377.01,715.50
1042,965.29,2378.65,717.00
1043,965.45,2380.28,706.00
1044,965.60,2381.92,717.50
1045,965.75,2383.55,688.00
1046,965.90,2385.18,705.50
1047,966.06,2386.82,699.00
1048,966.21,2388.45,695.00
1049,966.36,2390.08,686.50
1050,966.51,2391.71,706.50
1051,966.66,2393.34,676.00
1052,966.82,2394.97,691.50
1053,966.97,2396.59,678.00
1054,967.12,2398.22,670.50
1055,967.27,2399.85,684.50
1056,967.43,2401.47,679.00
1057,967.58,2403.10,690.00
1058,967.73,2404.72,697.50
1059,967.88,2406.34,669.00
1060,968.03,2407.96,706.50
1061,968.19,2409.58,672.50
1062,968.34,2411.20,669.00
1063,968.49,2412.82,664.00
1064,968.64,2414.44,690.50
1065,968.79,2416.06,631.50
1066,968.94,2417.68,635.50
1067,969.10,2419.30,632.00
1068,969.25,2420.91,656.50
1069,969.40,2422.53,645.00
1070,969.55,2424.14,644.00
1071,969.70,2425.75,629.50
1072,969.85,2427.37,638.00
1073,970.01,2428.98,642.50
1074,970.16,2430.59,637.00
1075,970.31,2432.20,640.50
1076,970.46,2433.81,616.00
1077,970.61,2435.42,650.50
1078,970.76,2437.02,627.00
1079,970.92,2438.63,594.00
1080,971.07,2440.24,620.50
1081,971.22,2441.84,631.50
1082,971.37,2443.45,616.50
1083,971.52,2445.05,609.50
1084,971.67,2446.65,595.00
1085,971.82,2448.26,599.50
1086,971.97,2449.86,593.00
1087,972.13,2451.46,597.00
1088,972.28,2453.06,581.50
1089,972.43,2454.66,538.00
1090,972.58,2456.25,602.00
1091,972.73,2457.85,578.50
1092,972.88,2459.45,558.50
1093,973.03,2461.04,559.50
1094,973.18,2462.64,550.50
1095,973.34,2464.23,581.50
1096,973.49,2465.83,565.00
1097,973.64,2467.42,588.00
1098,973.79,2469.01,581.00
1099,973.94,2470.60,574.00
1100,974.09,2472.19,575.50
1101,974.24,2473.78,534.00
1102,974.39,2475.37,566.50
1103,974.54,2476.96,592.50
1104,974.69,2478.55,575.00
1105,974.84,2480.13,558.00
1106,974.99,2481.72,574.50
1107,975.15,2483.30,592.00
1108,975.30,2484.89,560.00
1109,975.45,2486.47,570.00
1110,975.60,2488.05,518.50
1111,975.75,2489.64,525.00
1112,975.90,2491.22,550.00
1113,976.05,2492.80,550.50
1114,976.20,2494.38,522.00
1115,976.35,2495.96,563.00
1116,976.50,2497.53,542.50
1117,976.65,2499.11,548.00
1118,976.80,2500.69,524.00
1119,976.95,2502.26,541.50
1120,977.10,2503.84,536.00
1121,977.25,2505.41,509.50
1122,977.40,2506.98,514.00
1123,977.55,2508.56,521.50
1124,977.70,2510.13,535.00
1125,977.85,2511.70,480.00
1126,978.00,2513.27,517.00
1127,978.15,2514.84,496.50
1128,978.30,2516.41,494.00
1129,978.45,2517.97,502.00
1130,978.60,2519.54,492.50
1131,978.75,2521.11,498.00
1132,978.90,2522.67,476.50
1133,979.05,2524.24,506.50
1134,979.20,2525.80,526.00
1135,979.35,2527.36,481.50
1136,979.50,2528.93,485.00
1137,979.65,2530.49,467.50
1138,979.80,2532.05,520.50
1139,979.95,2533.61,476.00
1140,980.10,2535.17,491.50
1141,980.25,2536.72,471.50
1142,980.40,2538.28,483.50
1143,980.55,2539.84,480.00
1144,980.70,2541.40,494.00
1145,980.85,2542.95,469.00
1146,981.00,2544.50,450.50
1147,981.15,2546.06,439.00
1148,981.30,2547.61,481.00
1149,981.45,2549.16,479.00
1150,981.60,2550.71,457.50
1151,981.75,2552.27,451.00
1152,981.90,2553.81,443.50
1153,982.05,2555.36,472.00
1154,982.20,2556.91,481.50
1155,982.34,2558.46,469.00
1156,982.49,2560.01,449.00
1157,982.64,2561.55,453.50
1158,982.79,2563.10,438.50
1159,982.94,2564.64,446.50
1160,983.09,2566.18,422.00
1161,983.24,2567.73,439.50
1162,983.39,2569.27,440.00
1163,983.54,2570.81,435.50
1164,983.69,2572.35,412.50
1165,983.84,2573.89,443.00
1166,983.98,2575.43,438.50
1167,984.13,2576.97,422.00
1168,984.28,2578.50,445.00
1169,984.43,2580.04,471.50
1170,984.58,2581.58,421.50
1171,984.73,2583.11,410.50
1172,984.88,2584.65,409.50
1173,985.03,2586.18,426.00
1174,985.18,2587.71,442.00
1175,985.32,2589.24,394.50
1176,985.47,2590.78,379.00
1177,985.62,2592.31,429.50
1178,985.77,2593.84,417.00
1179,985.92,2595.36,421.00
1180,986.07,2596.89,417.00
1181,986.22,2598.42,400.50
1182,986.36,2599.95,393.00
1183,986.51,2601.47,410.00
1184,986.66,2603.00,398.50
1185,986.81,2604.52,418.00
1186,986.96,2606.04,426.00
1187,987.11,2607.57,425.00
1188,987.25,2609.09,397.00
1189,987.40,2610.61,408.50
1190,987.55,2612.13,399.00
1191,987.70,2613.65,403.00
1192,987.85,2615.17,404.00
1193,988.00,2616.69,387.00
1194,988.14,2618.20,394.50
1195,988.29,2619.72,389.50
1196,988.44,2621.24,403.00
1197,988.59,2622.75,353.50
1198,988.74,2624.26,395.00
1199,988.88,2625.78,373.00
1200,989.03,2627.29,369.00
1201,989.18,2628.80,413.00
1202,989.33,2630.31,397.50
1203,989.48,2631.82,366.00
1204,989.62,2633.33,385.50
1205,989.77,2634.84,403.00
1206,989.92,2636.35,361.00
1207,990.07,2637.86,375.00
1208,990.21,2639.36,351.00
1209,990.36,2640.87,373.00
1210,990.51,2642.37,366.00
1211,990.66,2643.88,348.50
1212,990.80,2645.38,360.50
1213,990.95,2646.88,370.00
1214,991.10,2648.39,394.00
1215,991.25,2649.89,358.00
1216,991.39,2651.39,365.50
1217,991.54,2652.89,377.00
1218,991.69,2654.39,364.50
1219,991.84,2655.88,366.00
1220,991.98,2657.38,344.50
1221,992.13,2658.88,355.50
1222,992.28,2660.37,338.00
1223,992.43,2661.87,382.00
1224,992.57,2663.36,345.00
1225,992.72,2664.86,356.50
1226,992.87,2666.35,367.50
1227,993.01,2667.84,341.50
1228,993.16,2669.33,341.50
1229,993.31,2670.82,348.50
1230,993.46,2672.31,348.50
1231,993.60,2673.80,327.50
1232,993.75,2675.29,358.00
1233,993.90,2676.78,358.00
1234,994.04,2678.26,336.50
1235,994.19,2679.75,320.50
1236,994.34,2681.23,351.00
1237,994.48,2682.72,313.00
1238,994.63,2684.20,367.00
1239,994.78,2685.69,353.00
1240,994.92,2687.17,328.00
1241,995.07,2688.65,335.50
1242,995.22,2690.13,343.50
1243,995.36,2691.61,307.00
1244,995.51,2693.09,342.50
1245,995.66,2694.57,333.50
1246,995.80,2696.04,338.00
1247,995.95,2697.52,313.50
1248,996.10,2699.00,297.00
1249,996.24,2700.47,302.50
1250,996.39,2701.95,318.50
1251,996.54,2703.42,328.50
1252,996.68,2704.89,311.50
1253,996.83,2706.36,330.00
1254,996.97,2707.84,313.50
1255,997.12,2709.31,332.00
1256,997.27,2710.78,294.00
1257,997.41,2712.25,321.50
1258,997.56,2713.71,321.00
1259,997.70,2715.18,295.00
1260,997.85,2716.65,317.50
1261,998.00,2718.11,295.50
1262,998.14,2719.58,288.50
1263,998.29,2721.04,298.00
1264,998.43,2722.51,266.50
1265,998.58,2723.97,330.50
1266,998.73,2725.43,290.50
1267,998.87,2726.89,291.00
1268,999.02,2728.36,285.00
1269,999.16,2729.82,306.50
1270,999.31,2731.27,304.00
1271,999.45,2732.73,313.00
1272,999.60,2734.19,288.00
1273,999.75,2735.65,284.00
1274,999.89,2737.10,302.50
1275,1000.04,2738.56,301.50
1276,1000.18,2740.01,264.50
1277,1000.33,2741.47,258.50
1278,1000.47,2742.92,289.50
1279,1000.62,2744.37,260.00
1280,1000.76,2745.83,261.50
1281,1000.91,2747.28,290.50
1282,1001.05,2748.73,233.00
1283,1001.20,2750.18,274.50
1284,1001.35,2751.62,257.00
1285,1001.49,2753.07,282.50
1286,1001.64,2754.52,242.50
1287,1001.78,2755.97,264.00
1288,1001.93,2757.41,285.50
1289,1002.07,2758.86,268.50
1290,1002.22,2760.30,288.50
1291,1002.36,2761.74,273.50
1292,1002.51,2763.19,284.50
1293,1002.65,2764.63,265.50
1294,1002.80,2766.07,271.50
1295,1002.94,2767.51,284.00
1296,1003.09,2768.95,234.00
1297,1003.23,2770.39,270.50
1298,1003.38,2771.83,258.50
1299,1003.52,2773.27,247.50
1300,1003.66,2774.70,261.00
1301,1003.81,2776.14,241.50
1302,1003.95,2777.57,251.50
1303,1004.10,2779.01,244.00
1304,1004.24,2780.44,255.00
1305,1004.39,2781.87,232.50
1306,1004.53,2783.31,249.00
1307,1004.68,2784.74,235.00
1308,1004.82,2786.17,237.00
1309,1004.97,2787.60,244.50
1310,1005.11,2789.03,253.50
1311,1005.25,2790.46,232.00
1312,1005.40,2791.88,231.00
1313,1005.54,2793.31,253.50
1314,1005.69,2794.74,220.50
1315,1005.83,2796.16,226.00
1316,1005.98,2797.59,229.00
1317,1006.12,2799.01,260.50
1318,1006.26,2800.43,226.50
1319,1006.41,2801.86,241.50
1320,1006.55,2803.28,239.50
1321,1006.70,2804.70,254.50
1322,1006.84,2806.12,238.50
1323,1006.98,2807.54,188.50
1324,1007.13,2808.96,231.00
1325,1007.27,2810.38,216.00
1326,1007.42,2811.79,255.50
1327,1007.56,2813.21,221.50
1328,1007.70,2814.63,213.50
1329,1007.85,2816.04,248.50
1330,1007.99,2817.46,241.50
1331,1008.13,2818.87,231.00
1332,1008.28,2820.28,228.00
1333,1008.42,2821.69,223.50
1334,1008.56,2823.11,233.00
1335,1008.71,2824.52,216.50
1336,1008.85,2825.93,212.00
1337,1008.99,2827.33,209.50
1338,1009.14,2828.74,203.50
1339,1009.28,2830.15,228.00
1340,1009.42,2831.56,232.00
1341,1009.57,2832.96,225.00
1342,1009.71,2834.37,217.50
1343,1009.85,2835.77,253.50
1344,1010.00,2837.18,198.00
1345,1010.14,2838.58,224.50
1346,1010.28,2839.98,219.50
1347,1010.43,2841.38,216.00
1348,1010.57,2842.79,235.00
1349,1010.71,2844.19,229.50
1350,1010.86,2845.59,233.00
1351,1011.00,2846.98,256.00
1352,1011.14,2848.38,253.50
1353,1011.29,2849.78,217.00
1354,1011.43,2851.18,241.50
1355,1011.57,2852.57,220.50
1356,1011.71,2853.97,223.00
1357,1011.86,2855.36,233.00
1358,1012.00,2856.75,237.00
1359,1012.14,2858.15,228.50
1360,1012.28,2859.54,219.00
1361,1012.43,2860.93,244.50
1362,1012.57,2862.32,248.50
1363,1012.71,2863.71,200.50
1364,1012.85,2865.10,210.00
1365,1013.00,2866.49,220.00
1366,1013.14,2867.88,202.50
1367,1013.28,2869.26,234.50
1368,1013.42,2870.65,227.50
1369,1013.57,2872.04,202.50
1370,1013.71,2873.42,183.50
1371,1013.85,2874.80,218.00
1372,1013.99,2876.19,240.00
1373,1014.14,2877.57,197.50
1374,1014.28,2878.95,207.00
1375,1014.42,2880.33,206.50
1376,1014.56,2881.71,229.00
1377,1014.70,2883.09,207.50
1378,1014.85,2884.47,201.50
1379,1014.99,2885.85,224.00
1380,1015.13,2887.23,261.50
1381,1015.27,2888.60,252.50
1382,1015.41,2889.98,231.50
1383,1015.55,2891.35,234.50
1384,1015.70,2892.73,213.50
1385,1015.84,2894.10,232.00
1386,1015.98,2895.48,226.00
1387,1016.12,2896.85,225.00
1388,1016.26,2898.22,252.50
1389,1016.40,2899.59,228.00
1390,1016.55,2900.96,239.50
1391,1016.69,2902.33,241.50
1392,1016.83,2903.70,221.00
1393,1016.97,2905.07,263.00
1394,1017.11,2906.43,251.00
1395,1017.25,2907.80,235.50
1396,1017.40,2909.17,222.00
1397,1017.54,2910.53,224.50
1398,1017.68,2911.89,240.00
1399,1017.82,2913.26,244.00
1400,1017.96,2914.62,244.00
1401,1018.10,2915.98,202.50
1402,1018.24,2917.34,229.00
1403,1018.38,2918.70,221.50
1404,1018.52,2920.06,236.50
1405,1018.67,2921.42,244.00
1406,1018.81,2922.78,249.00
1407,1018.95,2924.14,248.00
1408,1019.09,2925.50,217.00
1409,1019.23,2926.85,244.50
1410,1019.37,2928.21,222.50
1411,1019.51,2929.56,241.50
1412,1019.65,2930.92,226.50
1413,1019.79,2932.27,219.00
1414,1019.93,2933.62,231.50
1415,1020.07,2934.97,245.50
1416,1020.21,2936.33,238.50
1417,1020.35,2937.68,208.00
1418,1020.50,2939.03,236.00
1419,1020.64,2940.38,183.00
1420,1020.78,2941.72,255.50
1421,1020.92,2943.07,191.00
1422,1021.06,2944.42,203.50
1423,1021.20,2945.76,206.00
1424,1021.34,2947.11,205.00
1425,1021.48,2948.45,222.00
1426,1021.62,2949.80,196.00
1427,1021.76,2951.14,199.00
1428,1021.90,2952.48,222.00
1429,1022.04,2953.82,188.50
1430,1022.18,2955.17,179.00
1431,1022.32,2956.51,201.00
1432,1022.46,2957.85,182.50
1433,1022.60,2959.18,187.50
1434,1022.74,2960.52,175.00
1435,1022.88,2961.86,188.00
1436,1023.02,2963.20,179.00
1437,1023.16,2964.53,181.50
1438,1023.30,2965.87,163.00
1439,1023.44,2967.20,189.50
1440,1023.58,2968.54,186.50
1441,1023.72,2969.87,166.50
1442,1023.86,2971.20,193.00
1443,1024.00,2972.53,144.00
1444,1024.14,2973.86,200.00
1445,1024.28,2975.19,194.00
1446,1024.42,2976.52,180.00
1447,1024.55,2977.85,186.50
1448,1024.69,2979.18,185.00
1449,1024.83,2980.51,183.00
1450,1024.97,2981.83,198.00
1451,1025.11,2983.16,173.00
1452,1025.25,2984.49,144.00
1453,1025.39,2985.81,168.50
1454,1025.53,2987.13,178.50
1455,1025.67,2988.46,187.00
1456,1025.81,2989.78,154.50
1457,1025.95,2991.10,157.50
1458,1026.09,2992.42,149.50
1459,1026.23,2993.74,161.50
1460,1026.36,2995.06,168.50
1461,1026.50,2996.38,149.00
1462,1026.64,2997.70,149.00
1463,1026.78,2999.01,159.50
1464,1026.92,3000.33,154.00
1465,1027.06,3001.65,175.00
1466,1027.20,3002.96,162.50
1467,1027.34,3004.28,165.50
1468,1027.47,3005.59,155.00
1469,1027.61,3006.90,158.00
1470,1027.75,3008.22,170.00
1471,1027.89,3009.53,158.50
1472,1028.03,3010.84,168.50
1473,1028.17,3012.15,134.00
1474,1028.31,3013.46,136.50
1475,1028.44,3014.77,175.00
1476,1028.58,3016.07,162.00
1477,1028.72,3017.38,156.50
1478,1028.86,3018.69,199.00
1479,1029.00,3019.99,156.00
1480,1029.14,3021.30,145.50
1481,1029.27,3022.60,167.00
1482,1029.41,3023.91,162.00
1483,1029.55,3025.21,141.50
1484,1029.69,3026.51,181.50
1485,1029.83,3027.81,134.50
1486,1029.96,3029.11,161.00
1487,1030.10,3030.42,165.00
1488,1030.24,3031.71,156.50
1489,1030.38,3033.01,155.50
1490,1030.52,3034.31,175.00
1491,1030.65,3035.61,183.00
1492,1030.79,3036.91,165.50
1493,1030.93,3038.20,179.00
1494,1031.07,3039.50,173.00
1495,1031.20,3040.79,150.00
1496,1031.34,3042.08,161.50
1497,1031.48,3043.38,163.00
1498,1031.62,3044.67,167.00
1499,1031.75,3045.96,171.50
1500,1031.89,3047.25,177.50
1501,1032.03,3048.54,170.50
1502,1032.17,3049.83,161.50
1503,1032.30,3051.12,177.50
1504,1032.44,3052.41,180.50
1505,1032.58,3053.70,163.00
1506,1032.72,3054.98,173.50
1507,1032.85,3056.27,148.00
1508,1032.99,3057.55,175.50
1509,1033.13,3058.84,155.50
1510,1033.26,3060.12,168.00
1511,1033.40,3061.41,145.50
1512,1033.54,3062.69,179.00
1513,1033.68,3063.97,172.00
1514,1033.81,3065.25,173.00
1515,1033.95,3066.53,178.00
1516,1034.09,3067.81,153.50
1517,1034.22,3069.09,166.50
1518,1034.36,3070.37,156.50
1519,1034.50,3071.65,191.00
1520,1034.63,3072.92,132.50
1521,1034.77,3074.20,154.00
1522,1034.91,3075.48,166.50
1523,1035.04,3076.75,138.00
1524,1035.18,3078.02,155.50
1525,1035.32,3079.30,145.00
1526,1035.45,3080.57,166.50
1527,1035.59,3081.84,141.50
1528,1035.72,3083.11,159.00
1529,1035.86,3084.38,148.50
1530,1036.00,3085.65,164.00
1531,1036.13,3086.92,168.50
1532,1036.27,3088.19,142.00
1533,1036.41,3089.46,172.00
1534,1036.54,3090.73,144.50
1535,1036.68,3091.99,123.00
1536,1036.81,3093.26,136.50
1537,1036.95,3094.52,167.00
1538,1037.09,3095.79,158.00
1539,1037.22,3097.05,157.00
1540,1037.36,3098.31,137.50
1541,1037.49,3099.58,146.00
1542,1037.63,3100.84,173.50
1543,1037.77,3102.10,118.00
1544,1037.90,3103.36,149.50
1545,1038.04,3104.62,157.50
1546,1038.17,3105.88,146.00
1547,1038.31,3107.13,183.50
1548,1038.44,3108.39,158.50
1549,1038.58,3109.65,144.00
1550,1038.71,3110.90,129.50
1551,1038.85,3112.16,164.50
1552,1038.99,3113.41,145.50
1553,1039.12,3114.67,145.00
1554,1039.26,3115.92,157.00
1555,1039.39,3117.17,161.00
1556,1039.53,3118.42,137.00
1557,1039.66,3119.67,182.00
1558,1039.80,3120.93,141.00
1559,1039.93,3122.17,176.00
1560,1040.07,3123.42,151.50
1561,1040.20,3124.67,154.50
1562,1040.34,3125.92,168.50
1563,1040.47,3127.17,155.00
1564,1040.61,3128.41,180.00
1565,1040.74,3129.66,137.50
1566,1040.88,3130.90,135.50
1567,1041.01,3132.15,156.50
1568,1041.15,3133.39,124.00
1569,1041.28,3134.63,169.50
1570,1041.42,3135.87,138.00
1571,1041.55,3137.12,151.50
1572,1041.68,3138.36,136.50
1573,1041.82,3139.60,149.00
1574,1041.95,3140.84,148.50
1575,1042.09,3142.07,178.00
1576,1042.22,3143.31,141.00
1577,1042.36,3144.55,148.00
1578,1042.49,3145.79,164.50
1579,1042.63,3147.02,151.00
1580,1042.76,3148.26,147.00
1581,1042.89,3149.49,151.00
1582,1043.03,3150.72,148.50
1583,1043.16,3151.96,160.50
1584,1043.30,3153.19,164.00
1585,1043.43,3154.42,151.50
1586,1043.57,3155.65,173.00
1587,1043.70,3156.88,152.50
1588,1043.83,3158.11,169.50
1589,1043.97,3159.34,159.00
1590,1044.10,3160.57,153.00
1591,1044.23,3161.80,162.50
1592,1044.37,3163.02,148.50
1593,1044.50,3164.25,148.00
1594,1044.64,3165.48,141.00
1595,1044.77,3166.70,186.50
1596,1044.90,3167.92,146.00
1597,1045.04,3169.15,176.50
1598,1045.17,3170.37,156.00
1599,1045.30,3171.59,165.00
1600,1045.44,3172.81,162.50
1601,1045.57,3174.03,145.00
1602,1045.70,3175.25,173.00
1603,1045.84,3176.47,181.00
1604,1045.97,3177.69,152.00
1605,1046.10,3178.91,162.00
1606,1046.24,3180.13,170.00
1607,1046.37,3181.34,178.00
1608,1046.50,3182.56,171.00
1609,1046.64,3183.77,144.50
1610,1046.77,3184.99,174.00
1611,1046.90,3186.20,149.00
1612,1047.04,3187.42,178.00
1613,1047.17,3188.63,174.00
1614,1047.30,3189.84,152.50
1615,1047.43,3191.05,183.50
1616,1047.57,3192.26,155.50
1617,1047.70,3193.47,197.50
1618,1047.83,3194.68,186.50
1619,1047.97,3195.89,163.50
1620,1048.10,3197.10,155.00
1621,1048.23,3198.30,152.00
1622,1048.36,3199.51,169.00
1623,1048.50,3200.72,155.00
1624,1048.63,3201.92,172.50
1625,1048.76,3203.12,163.50
1626,1048.89,3204.33,182.00
1627,1049.03,3205.53,159.50
1628,1049.16,3206.73,170.00
1629,1049.29,3207.93,144.00
1630,1049.42,3209.14,170.00
1631,1049.55,3210.34,146.00
1632,1049.69,3211.54,168.00
1633,1049.82,3212.73,153.00
1634,1049.95,3213.93,165.50
1635,1050.08,3215.13,148.00
1636,1050.21,3216.33,149.50
1637,1050.35,3217.52,182.50
1638,1050.48,3218.72,157.00
1639,1050.61,3219.91,139.00
1640,1050.74,3221.11,135.00
1641,1050.87,3222.30,160.50
1642,1051.01,3223.49,152.00
1643,1051.14,3224.69,148.00
1644,1051.27,3225.88,157.50
1645,1051.40,3227.07,167.00
1646,1051.53,3228.26,151.00
1647,1051.66,3229.45,143.50
1648,1051.80,3230.64,150.00
1649,1051.93,3231.82,163.50
1650,1052.06,3233.01,187.00
1651,1052.19,3234.20,135.50
1652,1052.32,3235.38,152.00
1653,1052.45,3236.57,134.50
1654,1052.58,3237.75,148.50
1655,1052.71,3238.94,107.00
1656,1052.85,3240.12,156.50
1657,1052.98,3241.30,161.50
1658,1053.11,3242.49,145.50
1659,1053.24,3243.67,112.50
1660,1053.37,3244.85,159.50
1661,1053.50,3246.03,162.50
1662,1053.63,3247.21,155.00
1663,1053.76,3248.39,151.00
1664,1053.89,3249.56,145.00
1665,1054.02,3250.74,119.50
1666,1054.16,3251.92,156.00
1667,1054.29,3253.09,160.00
1668,1054.42,3254.27,135.50
1669,1054.55,3255.44,138.00
1670,1054.68,3256.62,142.50
1671,1054.81,3257.79,125.00
1672,1054.94,3258.96,147.50
1673,1055.07,3260.13,128.50
1674,1055.20,3261.31,114.00
1675,1055.33,3262.48,172.00
1676,1055.46,3263.65,129.50
1677,1055.59,3264.82,159.00
1678,1055.72,3265.98,135.50
1679,1055.85,3267.15,136.00
1680,1055.98,3268.32,131.50
1681,1056.11,3269.49,120.00
1682,1056.24,3270.65,128.50
1683,1056.37,3271.82,125.00
1684,1056.50,3272.98,142.50
1685,1056.63,3274.15,123.00
1686,1056.76,3275.31,130.50
1687,1056.89,3276.47,107.00
1688,1057.02,3277.63,148.50
1689,1057.15,3278.79,98.00
1690,1057.28,3279.96,163.50
1691,1057.41,3281.12,145.50
1692,1057.54,3282.27,132.50
1693,1057.67,3283.43,145.50
1694,1057.80,3284.59,97.00
1695,1057.93,3285.75,158.00
1696,1058.06,3286.91,150.50
1697,1058.19,3288.06,151.50
1698,1058.32,3289.22,140.00
1699,1058.45,3290.37,138.00
1700,1058.57,3291.52,143.50
1701,1058.70,3292.68,107.00
1702,1058.83,3293.83,121.00
1703,1058.96,3294.98,83.00
1704,1059.09,3296.13,99.50
1705,1059.22,3297.28,116.50
1706,1059.35,3298.43,92.50
1707,1059.48,3299.58,127.00
1708,1059.61,3300.73,136.00
1709,1059.74,3301.88,108.50
1710,1059.87,3303.03,114.50
1711,1059.99,3304.17,120.50
1712,1060.12,3305.32,105.00
1713,1060.25,3306.47,109.00
1714,1060.38,3307.61,100.00
1715,1060.51,3308.75,123.50
1716,1060.64,3309.90,134.50
1717,1060.77,3311.04,109.00
1718,1060.89,3312.18,102.50
1719,1061.02,3313.32,82.50
1720,1061.15,3314.47,99.00
1721,1061.28,3315.61,70.00
1722,1061.41,3316.74,110.00
1723,1061.54,3317.88,113.50
1724,1061.67,3319.02,104.50
1725,1061.79,3320.16,91.50
1726,1061.92,3321.30,120.50
1727,1062.05,3322.43,110.50
1728,1062.18,3323.57,81.50
1729,1062.31,3324.70,105.50
1730,1062.43,3325.84,117.50
1731,1062.56,3326.97,94.50
1732,1062.69,3328.10,94.50
1733,1062.82,3329.23,127.50
1734,1062.95,3330.37,83.50
1735,1063.07,3331.50,89.00
1736,1063.20,3332.63,106.50
1737,1063.33,3333.76,86.00
1738,1063.46,3334.89,112.00
1739,1063.58,3336.01,111.50
1740,1063.71,3337.14,88.50
1741,1063.84,3338.27,99.50
1742,1063.97,3339.40,124.50
1743,1064.09,3340.52,131.00
1744,1064.22,3341.65,100.50
1745,1064.35,3342.77,107.50
1746,1064.48,3343.89,107.50
1747,1064.60,3345.02,105.50
1748,1064.73,3346.14,84.00
1749,1064.86,3347.26,60.00
1750,1064.98,3348.38,105.00
1751,1065.11,3349.50,137.50
1752,1065.24,3350.62,113.00
1753,1065.37,3351.74,87.00
1754,1065.49,3352.86,119.00
1755,1065.62,3353.98,97.00
1756,1065.75,3355.10,100.50
1757,1065.87,3356.21,90.00
1758,1066.00,3357.33,87.50
1759,1066.13,3358.44,126.50
1760,1066.25,3359.56,114.00
1761,1066.38,3360.67,109.50
1762,1066.51,3361.79,105.00
1763,1066.63,3362.90,102.00
1764,1066.76,3364.01,102.50
1765,1066.89,3365.12,92.50
1766,1067.01,3366.23,92.00
1767,1067.14,3367.34,97.50
1768,1067.27,3368.45,102.00
1769,1067.39,3369.56,104.00
1770,1067.52,3370.67,107.00
1771,1067.64,3371.78,85.00
1772,1067.77,3372.88,120.50
1773,1067.90,3373.99,96.00
1774,1068.02,3375.09,95.50
1775,1068.15,3376.20,85.00
1776,1068.28,3377.30,119.00
1777,1068.40,3378.41,88.50
1778,1068.53,3379.51,90.50
1779,1068.65,3380.61,79.50
1780,1068.78,3381.71,81.50
1781,1068.90,3382.82,100.50
1782,1069.03,3383.92,96.50
1783,1069.16,3385.02,80.50
1784,1069.28,3386.11,96.50
1785,1069.41,3387.21,92.50
1786,1069.53,3388.31,52.50
1787,1069.66,3389.41,87.50
1788,1069.78,3390.50,73.00
1789,1069.91,3391.60,70.50
1790,1070.03,3392.70,57.00
1791,1070.16,3393.79,100.50
1792,1070.29,3394.88,59.00
1793,1070.41,3395.98,102.00
1794,1070.54,3397.07,118.00
1795,1070.66,3398.16,111.50
1796,1070.79,3399.25,90.50
1797,1070.91,3400.34,81.50
1798,1071.04,3401.43,97.50
1799,1071.16,3402.52,82.00
1800,1071.29,3403.61,86.50
1801,1071.41,3404.70,87.00
1802,1071.54,3405.79,80.50
1803,1071.66,3406.88,107.00
1804,1071.79,3407.96,69.00
1805,1071.91,3409.05,83.50
1806,1072.03,3410.13,87.50
1807,1072.16,3411.22,83.50
1808,1072.28,3412.30,70.50
1809,1072.41,3413.38,85.50
1810,1072.53,3414.47,94.00
1811,1072.66,3415.55,90.00
1812,1072.78,3416.63,70.50
1813,1072.91,3417.71,94.00
1814,1073.03,3418.79,84.00
1815,1073.15,3419.87,87.00
1816,1073.28,3420.95,81.50
1817,1073.40,3422.03,66.00
1818,1073.53,3423.10,82.00
1819,1073.65,3424.18,91.00
1820,1073.78,3425.26,72.50
1821,1073.90,3426.33,65.00
1822,1074.02,3427.41,67.50
1823,1074.15,3428.48,85.50
1824,1074.27,3429.55,78.00
1825,1074.40,3430.63,101.50
1826,1074.52,3431.70,76.50
1827,1074.64,3432.77,54.00
1828,1074.77,3433.84,65.00
1829,1074.89,3434.91,50.00
1830,1075.01,3435.98,61.00
1831,1075.14,3437.05,86.50
1832,1075.26,3438.12,81.00
1833,1075.38,3439.19,85.00
1834,1075.51,3440.25,65.00
1835,1075.63,3441.32,64.00
1836,1075.75,3442.39,68.00
1837,1075.88,3443.45,77.50
1838,1076.00,3444.52,80.00
1839,1076.12,3445.58,59.50
1840,1076.25,3446.64,55.50
1841,1076.37,3447.71,81.50
1842,1076.49,3448.77,80.50
1843,1076.62,3449.83,73.50
1844,1076.74,3450.89,89.50
1845,1076.86,3451.95,44.00
1846,1076.99,3453.01,79.50
1847,1077.11,3454.07,65.50
1848,1077.23,3455.13,72.50
1849,1077.35,3456.19,68.50
1850,1077.48,3457.24,78.50
1851,1077.60,3458.30,73.50
1852,1077.72,3459.36,49.50
1853,1077.84,3460.41,61.00
1854,1077.97,3461.47,66.50
1855,1078.09,3462.52,87.50
1856,1078.21,3463.57,77.50
1857,1078.33,3464.63,50.00
1858,1078.46,3465.68,78.50
1859,1078.58,3466.73,55.50
1860,1078.70,3467.78,42.50
1861,1078.82,3468.83,69.00
1862,1078.95,3469.88,85.00
1863,1079.07,3470.93,47.00
1864,1079.19,3471.98,43.00
1865,1079.31,3473.03,73.50
1866,1079.43,3474.07,44.50
1867,1079.56,3475.12,64.00
1868,1079.68,3476.17,41.50
1869,1079.80,3477.21,29.00
1870,1079.92,3478.26,54.50
1871,1080.04,3479.30,77.50
1872,1080.16,3480.34,70.50
1873,1080.29,3481.39,48.50
1874,1080.41,3482.43,41.00
1875,1080.53,3483.47,61.00
1876,1080.65,3484.51,44.00
1877,1080.77,3485.55,26.50
1878,1080.89,3486.59,74.50
1879,1081.02,3487.63,55.50
1880,1081.14,3488.67,92.00
1881,1081.26,3489.71,56.00
1882,1081.38,3490.74,38.50
1883,1081.50,3491.78,33.50
1884,1081.62,3492.82,59.00
1885,1081.74,3493.85,42.00
1886,1081.86,3494.89,38.50
1887,1081.99,3495.92,59.00
1888,1082.11,3496.95,38.00
1889,1082.23,3497.99,46.00
1890,1082.35,3499.02,52.50
1891,1082.47,3500.05,38.50
1892,1082.59,3501.08,49.50
1893,1082.71,3502.11,50.50
1894,1082.83,3503.14,63.50
1895,1082.95,3504.17,60.50
1896,1083.07,3505.20,56.50
1897,1083.19,3506.23,34.00
1898,1083.31,3507.25,32.00
1899,1083.43,3508.28,26.50
1900,1083.55,3509.31,47.50
1901,1083.68,3510.33,52.00
1902,1083.80,3511.36,33.50
1903,1083.92,3512.38,25.50
1904,1084.04,3513.40,42.00
1905,1084.16,3514.43,30.00
1906,1084.28,3515.45,36.00
1907,1084.40,3516.47,34.50
1908,1084.52,3517.49,64.50
1909,1084.64,3518.51,27.00
1910,1084.76,3519.53,66.50
1911,1084.88,3520.55,35.00
1912,1085.00,3521.57,21.50
1913,1085.12,3522.59,59.00
1914,1085.24,3523.61,72.50
1915,1085.36,3524.62,29.50
1916,1085.48,3525.64,34.50
1917,1085.60,3526.65,43.00
1918,1085.72,3527.67,18.00
1919,1085.83,3528.68,15.50
1920,1085.95,3529.70,43.00
1921,1086.07,3530.71,36.00
1922,1086.19,3531.72,2.50
1923,1086.31,3532.73,33.00
1924,1086.43,3533.75,50.50
1925,1086.55,3534.76,25.00
1926,1086.67,3535.77,11.50
1927,1086.79,3536.78,-2.00
1928,1086.91,3537.78,28.00
1929,1087.03,3538.79,62.50
1930,1087.15,3539.80,33.00
1931,1087.27,3540.81,10.50
1932,1087.39,3541.81,40.50
1933,1087.50,3542.82,0.00
1934,1087.62,3543.82,9.00
1935,1087.74,3544.83,31.00
1936,1087.86,3545.83,77.50
1937,1087.98,3546.84,-1.50
1938,1088.10,3547.84,30.00
1939,1088.22,3548.84,4.00
1940,1088.34,3549.84,51.50
1941,1088.45,3550.84,41.00
1942,1088.57,3551.84,21.50
1943,1088.69,3552.84,47.00
1944,1088.81,3553.84,33.50
1945,1088.93,3554.84,57.50
1946,1089.05,3555.84,22.00
1947,1089.16,3556.84,34.50
1948,1089.28,3557.83,24.50
1949,1089.40,3558.83,39.50
1950,1089.52,3559.83,0.00
1951,1089.64,3560.82,13.00
1952,1089.76,3561.81,51.00
1953,1089.87,3562.81,7.00
1954,1089.99,3563.80,39.50
1955,1090.11,3564.79,15.50
1956,1090.23,3565.79,26.00
1957,1090.34,3566.78,45.00
1958,1090.46,3567.77,-1.00
1959,1090.58,3568.76,26.50
1960,1090.70,3569.75,26.50
1961,1090.82,3570.74,17.50
1962,1090.93,3571.72,26.00
1963,1091.05,3572.71,43.50
1964,1091.17,3573.70,16.00
1965,1091.29,3574.68,37.00
1966,1091.40,3575.67,36.00
1967,1091.52,3576.66,25.00
1968,1091.64,3577.64,12.50
1969,1091.76,3578.62,45.00
1970,1091.87,3579.61,21.50
1971,1091.99,3580.59,29.00
1972,1092.11,3581.57,32.00
1973,1092.22,3582.55,23.00
1974,1092.34,3583.54,0.50
1975,1092.46,3584.52,44.00
1976,1092.57,3585.50,-15.50
1977,1092.69,3586.48,16.50
1978,1092.81,3587.45,18.00
1979,1092.93,3588.43,24.50
1980,1093.04,3589.41,30.50
1981,1093.16,3590.39,8.50
1982,1093.28,3591.36,8.50
1983,1093.39,3592.34,36.00
1984,1093.51,3593.31,26.50
1985,1093.63,3594.29,23.00
1986,1093.74,3595.26,26.00
1987,1093.86,3596.23,24.00
1988,1093.97,3597.21,20.00
1989,1094.09,3598.18,-2.50
1990,1094.21,3599.15,8.50
1991,1094.32,3600.12,28.50
1992,1094.44,3601.09,17.50
1993,1094.56,3602.06,27.00
1994,1094.67,3603.03,-6.50
1995,1094.79,3604.00,18.00
1996,1094.90,3604.97,20.50
1997,1095.02,3605.93,17.00
1998,1095.14,3606.90,20.50
1999,1095.25,3607.87,16.50
2000,1095.37,3608.83,20.50
2001,1095.48,3609.80,22.00
2002,1095.60,3610.76,41.00
2003,1095.71,3611.72,-3.50
2004,1095.83,3612.69,16.00
2005,1095.95,3613.65,3.00
2006,1096.06,3614.61,24.50
2007,1096.18,3615.57,0.50
2008,1096.29,3616.53,29.00
2009,1096.41,3617.49,9.50
2010,1096.52,3618.45,3.50
2011,1096.64,3619.41,16.50
2012,1096.75,3620.37,30.50
2013,1096.87,3621.33,10.00
2014,1096.98,3622.29,3.50
2015,1097.10,3623.24,-3.50
2016,1097.21,3624.20,31.50
2017,1097.33,3625.15,15.00
2018,1097.44,3626.11,23.50
2019,1097.56,3627.06,27.00
2020,1097.67,3628.02,3.50
2021,1097.79,3628.97,36.50
2022,1097.90,3629.92,22.00
2023,1098.02,3630.88,-16.50
2024,1098.13,3631.83,21.00
2025,1098.25,3632.78,13.00
2026,1098.36,3633.73,11.00
2027,1098.48,3634.68,5.00
2028,1098.59,3635.63,19.50
2029,1098.71,3636.57,20.00
2030,1098.82,3637.52,33.50
2031,1098.94,3638.47,37.00
2032,1099.05,3639.42,35.50
2033,1099.16,3640.36,14.50
2034,1099.28,3641.31,27.00
2035,1099.39,3642.25,18.50
2036,1099.51,3643.20,-27.50
2037,1099.62,3644.14,-1.00
2038,1099.73,3645.08,30.50
2039,1099.85,3646.03,29.00
2040,1099.96,3646.97,36.00
2041,1100.08,3647.91,-7.00
2042,1100.19,3648.85,19.50
2043,1100.30,3649.79,-2.00
2044,1100.42,3650.73,-3.00
2045,1100.53,3651.67,10.00
2046,1100.65,3652.61,16.50
2047,1100.76,3653.54,-16.00
